
% Pressure Derived Surface Spectrum in units of mm/sqrt(Hz)
% 64 Frequency Bands are 0.01562500 Hz wide(first frequency band is centered at 0.00830078)
   35659
    1218
     617
     334
     156
     264
     916
     480
     341
     328
     308
     152
     247
     162
     325
     232
     135
     740
    1258
    1111
    1650
    2819
    2429
    6511
    7962
   12054
    7414
   27197
   67672
   98323
  132972
  269605
  545504
  219551
  207602
  210763
  235839
  399751
  256920
  -21426
  -63052
 -121312
  173822
  104567
  212081
  205756
  -60000
  255678
  221832
   66936
   87214
  -89503
  -37414
  109534
  -86155
   63917
   55869
  -45009
  -65992
 -123484
   89375
   52238
   52017
 -135202

