
% Echo Location Surface Spectrum in units of mm/sqrt(Hz)
% 64 Frequency Bands are 0.01562500 Hz wide(first frequency band is centered at 0.00830078)
     187
     105
      67
     116
     206
     301
     937
     619
     326
     254
     293
     383
     253
     246
     194
     152
     134
     171
     100
      87
      62
      36
      81
      67
      39
      81
      41
      79
      51
     114
     104
     125
      96
     142
      79
      91
      75
     112
      59
      69
      46
      85
      39
      63
      52
      81
      54
      46
      46
      62
      62
     -46
      20
      -7
     -45
     -25
      65
       5
      15
      11
     -58
     -15
     -32
     -28

