
% Echo Location Surface Spectrum in units of mm/sqrt(Hz)
% 64 Frequency Bands are 0.01562500 Hz wide(first frequency band is centered at 0.00830078)
     -22
     -20
      30
     108
     170
     136
     651
     632
     451
     407
     298
     253
     259
     244
     256
     231
     261
     181
     183
     212
     174
     144
     158
     146
     123
     102
     134
     123
     118
     111
      95
      86
      81
      41
     117
      86
      53
      36
      38
      59
      49
      54
      26
      73
      26
      26
      26
      72
      36
      41
     -20
      49
      50
      28
     -25
     -19
     -28
      -7
     -22
      11
      -9
     -26
     -35
     -52

