
% Echo Location Surface Spectrum in units of mm/sqrt(Hz)
% 64 Frequency Bands are 0.01562500 Hz wide(first frequency band is centered at 0.00830078)
     174
      99
      70
      89
     129
     273
     655
     490
     354
     303
     261
     385
     326
     295
     122
     177
     163
     129
      86
      64
      69
     -54
      33
     -25
      16
     -27
     -38
      19
      78
      56
     -35
     110
      95
      97
      99
      98
      82
      69
      96
     103
      87
      73
     100
     100
      81
      92
      54
      62
      52
      31
      69
      34
      42
     -30
      17
     -53
      29
     -45
     -41
     -27
     -37
     -49
     -25
       5

