
% Echo Location Surface Spectrum in units of mm/sqrt(Hz)
% 64 Frequency Bands are 0.01562500 Hz wide(first frequency band is centered at 0.00830078)
      31
     -51
      33
      79
     124
     221
     856
     798
     341
     348
     382
     250
     201
     207
     177
     124
     135
     126
      40
     -22
      64
      23
      24
      11
     -36
      55
      68
      74
      75
     118
      88
     108
     119
     116
     106
     122
     118
      95
      71
      83
     105
      69
      72
      47
     -21
      62
      39
      58
      56
     -41
      18
     -42
      54
      42
      55
     -47
       9
     -23
      35
     -25
     -40
     -37
     -52
      -3

