
% Echo Location Surface Spectrum in units of mm/sqrt(Hz)
% 64 Frequency Bands are 0.01562500 Hz wide(first frequency band is centered at 0.00830078)
      75
      79
     -34
      64
     139
     199
     673
     701
     281
     179
     228
     256
     243
     262
     242
     107
     132
      97
      95
      75
      75
     -40
      82
      87
      80
     140
     155
     186
     195
     203
     162
     110
     128
     151
      96
      88
     108
     129
     107
     100
      90
      74
      84
      77
     -38
      95
     -31
      64
      22
     -10
      33
      72
       7
     -30
      38
      19
     -33
      17
     -45
     -48
     -27
      32
     -55
      18

