
% Echo Location Surface Spectrum in units of mm/sqrt(Hz)
% 64 Frequency Bands are 0.01562500 Hz wide(first frequency band is centered at 0.00830078)
      34
     -19
     -37
      35
     161
     191
     721
     569
     421
     174
     298
     350
     255
     217
     193
     119
     117
      77
      81
      39
      16
      46
      70
      56
     100
     120
     121
     136
     179
     135
     140
     141
     111
     112
     131
     127
      86
     113
      84
      90
      79
      61
      63
      58
      50
      62
      36
      61
      44
      40
      51
      58
     -18
     -43
      22
       0
     -15
     -33
      20
      -7
      32
     -53
     -43
     -27

