
% Echo Location Surface Spectrum in units of mm/sqrt(Hz)
% 64 Frequency Bands are 0.01562500 Hz wide(first frequency band is centered at 0.00830078)
      29
       5
      -9
     108
     183
     250
     752
     570
     352
     285
     200
     308
     287
     313
     213
     142
     156
      80
     129
      91
      65
     101
      86
      91
     129
     165
     152
     190
     129
     164
     153
     154
     154
     191
      82
     121
     103
      93
      79
     107
      80
     134
      70
      80
      95
      55
      32
      51
      47
      44
      52
      61
      54
      41
      44
     -16
      28
     -32
     -41
      16
     -40
     -49
     -64
     -66

