
% Echo Location Surface Spectrum in units of mm/sqrt(Hz)
% 64 Frequency Bands are 0.01562500 Hz wide(first frequency band is centered at 0.00830078)
      97
      28
      80
      56
     147
     206
     660
     567
     335
     203
     202
     327
     309
     236
     225
     167
     154
     106
     104
      45
      50
      94
      38
      50
     126
      90
     116
     126
     157
     113
     132
      88
     101
      63
     154
      75
     118
      62
      61
     119
      78
      98
      59
      20
      66
      85
      96
      78
      47
      40
      39
      19
      46
      26
      55
     -45
     -48
     -35
     -47
       8
      46
     -41
     -43
      30

