
% Echo Location Surface Spectrum in units of mm/sqrt(Hz)
% 64 Frequency Bands are 0.01562500 Hz wide(first frequency band is centered at 0.00830078)
     234
      46
     101
      45
     171
     251
     666
     527
     389
     282
     220
     236
     278
     231
     122
     168
     108
      75
     119
     184
     163
     163
     153
     203
     213
     157
     145
     177
     158
     127
     143
     126
     109
     147
      85
     150
     104
     109
     118
     109
      50
      86
      23
      83
      37
      90
      44
     -42
      60
      74
     -16
     -23
     -58
     -58
     -58
      39
     -52
      72
     -44
      59
      39
     -30
      30
     -72

